* Measurement data measured by REW V5.20.4
* Source: C:\Users\topge\Documents\me to crin(rev).txt
* Format: Comma/Tab/Space delimited data
* Dated: 12 Apr, 2022 11:51:12 PM
* REW Settings:
*  C-weighting compensation: Off
*  Target level: 75.0 dB
* Note: Measurement imported from C:\Users\topge\Documents\me to crin(rev).txt Format: Comma/Tab/Space delimited data 408 values loaded, 20 Hz to 7,000 Hz
* Measurement: me to crin(rev)
* Smoothing: None
* Frequency Step: 1/48 octave
* Start Frequency: 20.000 Hz
*
* Freq(Hz)	SPL(dB)
20.000000	0.641
20.299999	0.595
20.600000	0.554
20.900000	0.540
21.200001	0.540
21.400000	0.533
21.799999	0.515
22.000000	0.507
22.400000	0.471
22.700001	0.425
23.000000	0.382
23.299999	0.351
23.600000	0.316
24.000000	0.263
24.299999	0.234
24.700001	0.208
25.000000	0.187
25.400000	0.157
25.799999	0.130
26.200001	0.105
26.500000	0.087
26.900000	0.066
27.200001	0.057
27.600000	0.040
28.000000	0.007
28.500000	-0.024
29.000000	-0.040
29.500000	-0.068
30.000000	-0.063
30.400000	-0.086
30.700001	-0.092
31.100000	-0.084
31.500000	-0.069
32.000000	-0.054
32.500000	-0.071
33.000000	-0.092
33.500000	-0.125
34.000000	-0.150
34.500000	-0.156
35.000000	-0.159
35.500000	-0.179
36.000000	-0.201
36.500000	-0.223
37.000000	-0.233
37.500000	-0.224
38.200001	-0.208
38.700001	-0.211
39.500000	-0.257
40.000000	-0.286
40.599998	-0.314
41.200001	-0.340
41.799999	-0.369
42.500000	-0.362
43.099998	-0.326
43.700001	-0.327
44.400002	-0.321
45.000000	-0.331
45.500000	-0.384
46.200001	-0.457
46.799999	-0.488
47.500000	-0.486
48.200001	-0.497
48.700001	-0.492
49.400002	-0.496
50.000000	-0.527
50.799999	-0.563
51.500000	-0.569
52.200001	-0.547
53.000000	-0.549
53.799999	-0.554
54.500000	-0.531
55.200001	-0.541
56.000000	-0.575
57.000000	-0.581
58.000000	-0.585
59.000000	-0.547
60.000000	-0.515
60.799999	-0.517
61.500000	-0.501
62.200001	-0.494
63.000000	-0.508
64.000000	-0.522
65.000000	-0.520
66.000000	-0.507
67.000000	-0.507
68.000000	-0.498
69.000000	-0.504
70.000000	-0.506
71.000000	-0.510
72.000000	-0.546
73.000000	-0.565
74.000000	-0.527
75.000000	-0.475
76.199997	-0.470
77.500000	-0.498
78.800003	-0.508
80.000000	-0.525
81.199997	-0.523
82.500000	-0.542
83.800003	-0.568
85.000000	-0.601
86.199997	-0.619
87.500000	-0.597
88.500000	-0.528
90.000000	-0.495
91.199997	-0.497
92.500000	-0.515
93.800003	-0.534
95.000000	-0.582
96.199997	-0.611
97.500000	-0.588
98.800003	-0.546
100.000000	-0.522
101.500000	-0.502
103.000000	-0.528
104.400002	-0.540
106.000000	-0.532
107.500000	-0.552
109.000000	-0.565
110.599998	-0.575
112.000000	-0.591
113.800003	-0.631
115.000000	-0.646
117.199997	-0.629
118.000000	-0.622
120.599998	-0.601
122.000000	-0.599
124.099998	-0.565
125.000000	-0.579
126.500000	-0.572
128.000000	-0.553
131.500000	-0.558
132.000000	-0.558
134.000000	-0.569
136.000000	-0.583
138.000000	-0.595
140.000000	-0.616
143.000000	-0.580
145.000000	-0.537
147.500000	-0.546
150.000000	-0.542
152.500000	-0.551
155.000000	-0.550
157.500000	-0.560
160.000000	-0.600
162.500000	-0.586
165.000000	-0.575
167.500000	-0.575
170.000000	-0.570
172.500000	-0.592
175.000000	-0.616
177.500000	-0.586
180.000000	-0.587
182.500000	-0.598
185.000000	-0.610
187.500000	-0.622
190.000000	-0.654
192.500000	-0.681
195.000000	-0.665
197.500000	-0.668
200.000000	-0.707
203.000000	-0.713
206.000000	-0.674
209.000000	-0.648
212.000000	-0.649
214.000000	-0.644
218.000000	-0.625
220.000000	-0.600
224.000000	-0.604
227.000000	-0.624
230.000000	-0.610
233.000000	-0.615
236.000000	-0.625
240.000000	-0.618
243.000000	-0.619
247.000000	-0.582
250.000000	-0.578
254.000000	-0.584
258.000000	-0.582
262.000000	-0.586
265.000000	-0.578
269.000000	-0.564
272.000000	-0.578
276.000000	-0.572
280.000000	-0.562
285.000000	-0.569
290.000000	-0.585
295.000000	-0.595
300.000000	-0.620
304.000000	-0.634
307.000000	-0.642
311.000000	-0.654
315.000000	-0.648
320.000000	-0.641
325.000000	-0.645
330.000000	-0.609
335.000000	-0.619
340.000000	-0.616
345.000000	-0.605
350.000000	-0.599
355.000000	-0.589
360.000000	-0.541
365.000000	-0.540
370.000000	-0.524
375.000000	-0.520
382.000000	-0.461
387.000000	-0.472
395.000000	-0.475
400.000000	-0.470
406.000000	-0.479
412.000000	-0.498
418.000000	-0.510
425.000000	-0.486
431.000000	-0.483
437.000000	-0.531
444.000000	-0.513
450.000000	-0.497
455.000000	-0.474
462.000000	-0.479
468.000000	-0.492
475.000000	-0.513
482.000000	-0.508
487.000000	-0.504
494.000000	-0.491
500.000000	-0.501
508.000000	-0.499
515.000000	-0.509
522.000000	-0.517
530.000000	-0.518
538.000000	-0.531
545.000000	-0.529
552.000000	-0.524
560.000000	-0.515
570.000000	-0.505
580.000000	-0.486
590.000000	-0.496
600.000000	-0.449
608.000000	-0.488
615.000000	-0.459
622.000000	-0.444
630.000000	-0.433
640.000000	-0.431
650.000000	-0.438
660.000000	-0.455
670.000000	-0.404
680.000000	-0.401
690.000000	-0.386
700.000000	-0.373
710.000000	-0.376
720.000000	-0.384
730.000000	-0.376
740.000000	-0.356
750.000000	-0.331
762.000000	-0.308
775.000000	-0.299
788.000000	-0.276
800.000000	-0.251
812.000000	-0.244
825.000000	-0.190
838.000000	-0.182
850.000000	-0.141
862.000000	-0.097
875.000000	-0.065
885.000000	-0.043
900.000000	-0.020
912.000000	0.012
925.000000	0.042
938.000000	0.059
950.000000	0.071
962.000000	0.091
975.000000	0.084
988.000000	0.085
1000.000000	0.103
1015.000000	0.093
1030.000000	0.086
1044.000000	0.069
1060.000000	0.054
1075.000000	-0.025
1090.000000	-0.089
1106.000000	-0.164
1120.000000	-0.236
1138.000000	-0.305
1150.000000	-0.365
1172.000000	-0.499
1180.000000	-0.556
1206.000000	-0.736
1220.000000	-0.799
1241.000000	-0.875
1250.000000	-0.888
1265.000000	-0.929
1280.000000	-1.031
1315.000000	-1.128
1320.000000	-1.144
1340.000000	-1.187
1360.000000	-1.214
1380.000000	-1.232
1400.000000	-1.268
1430.000000	-1.256
1450.000000	-1.273
1475.000000	-1.294
1500.000000	-1.304
1525.000000	-1.299
1550.000000	-1.316
1575.000000	-1.310
1600.000000	-1.293
1625.000000	-1.328
1650.000000	-1.327
1675.000000	-1.336
1700.000000	-1.344
1725.000000	-1.343
1750.000000	-1.336
1775.000000	-1.348
1800.000000	-1.316
1825.000000	-1.314
1850.000000	-1.344
1875.000000	-1.323
1900.000000	-1.319
1925.000000	-1.304
1950.000000	-1.306
1975.000000	-1.299
2000.000000	-1.314
2030.000000	-1.307
2060.000000	-1.283
2090.000000	-1.289
2120.000000	-1.262
2140.000000	-1.254
2180.000000	-1.239
2200.000000	-1.240
2240.000000	-1.231
2270.000000	-1.191
2300.000000	-1.200
2330.000000	-1.216
2360.000000	-1.188
2400.000000	-1.199
2430.000000	-1.180
2470.000000	-1.196
2500.000000	-1.157
2540.000000	-1.170
2580.000000	-1.159
2620.000000	-1.150
2650.000000	-1.138
2690.000000	-1.101
2720.000000	-1.110
2760.000000	-1.069
2800.000000	-1.065
2850.000000	-1.041
2900.000000	-1.015
2950.000000	-0.981
3000.000000	-0.962
3040.000000	-0.933
3070.000000	-0.918
3110.000000	-0.900
3150.000000	-0.884
3200.000000	-0.854
3250.000000	-0.851
3300.000000	-0.845
3350.000000	-0.835
3400.000000	-0.832
3450.000000	-0.825
3500.000000	-0.808
3550.000000	-0.762
3600.000000	-0.761
3650.000000	-0.749
3700.000000	-0.710
3750.000000	-0.695
3820.000000	-0.644
3870.000000	-0.618
3950.000000	-0.583
4000.000000	-0.558
4060.000000	-0.526
4120.000000	-0.510
4180.000000	-0.488
4250.000000	-0.489
4310.000000	-0.460
4370.000000	-0.425
4440.000000	-0.365
4500.000000	-0.297
4550.000000	-0.254
4620.000000	-0.243
4680.000000	-0.232
4750.000000	-0.217
4820.000000	-0.233
4870.000000	-0.240
4940.000000	-0.224
5000.000000	-0.198
5080.000000	-0.176
5150.000000	-0.173
5220.000000	-0.187
5300.000000	-0.187
5380.000000	-0.253
5450.000000	-0.307
5520.000000	-0.363
5600.000000	-0.440
5700.000000	-0.532
5800.000000	-0.593
5900.000000	-0.617
6000.000000	-0.662
6080.000000	-0.684
6150.000000	-0.677
6220.000000	-0.636
6300.000000	-0.565
6400.000000	-0.454
6500.000000	-0.324
6600.000000	-0.205
6700.000000	-0.134
6800.000000	-0.041
6900.000000	0.103
7000.000000	0.276
